sep=\t
Sampling Freq: 100Hz, 0.01 seconds between each sample
AO	Average AO	PW	Average PW	Pd/Pa
76.700	236.900	52.000	68.700	0.290
76.600	235.600	51.600	68.500	0.291
76.200	234.300	51.300	68.400	0.292
75.700	232.900	50.900	68.300	0.293
75.200	231.600	50.400	68.200	0.294
74.900	230.200	50.100	68.000	0.295
74.600	228.900	49.800	67.900	0.297
74.000	227.500	49.500	67.800	0.298
73.600	226.200	49.200	67.700	0.299
73.400	224.800	48.800	67.600	0.301
73.000	223.500	48.300	67.500	0.302
72.500	222.100	48.000	67.400	0.303
72.100	220.800	48.000	67.300	0.305
71.900	219.400	47.700	67.200	0.306
71.500	218.100	47.300	67.100	0.308
71.000	216.700	47.200	67.000	0.309
70.700	215.400	47.200	66.900	0.311
70.400	214.000	47.200	66.900	0.312
69.900	212.600	46.700	66.800	0.314
69.500	211.300	46.400	66.700	0.316
69.300	209.900	46.200	66.600	0.317
69.000	208.600	45.900	66.600	0.319
68.500	207.200	45.800	66.500	0.321
68.100	205.800	45.700	66.400	0.323
67.900	204.400	45.500	66.400	0.325
67.600	203.100	45.200	66.300	0.326
67.100	201.700	45.000	66.200	0.328
66.800	200.300	44.700	66.200	0.330
66.600	199.000	44.500	66.100	0.332
66.100	197.600	44.200	66.000	0.334
65.700	196.200	44.100	66.000	0.336
65.600	194.800	44.100	65.900	0.338
65.200	193.500	43.700	65.900	0.340
64.700	192.100	43.600	65.800	0.343
64.500	190.700	43.500	65.700	0.345
64.300	189.300	43.200	65.700	0.347
63.900	187.900	43.000	65.600	0.349
63.500	186.600	42.700	65.600	0.352
63.300	185.200	42.500	65.500	0.354
62.900	183.800	42.300	65.500	0.356
62.500	182.400	42.100	65.400	0.359
62.300	181.000	41.900	65.400	0.361
62.100	179.600	41.700	65.300	0.364
61.600	178.200	41.500	65.300	0.366
61.300	176.800	41.300	65.200	0.369
61.200	175.500	41.300	65.200	0.372
60.800	174.100	41.200	65.200	0.374
60.600	172.700	41.200	65.100	0.377
60.500	171.300	41.600	65.100	0.380
60.100	169.900	41.700	65.000	0.383
59.800	168.500	41.500	65.000	0.386
59.700	167.100	41.800	64.900	0.389
59.400	165.700	42.000	64.900	0.392
59.000	164.300	41.800	64.900	0.395
58.700	162.900	41.800	64.800	0.398
58.500	161.500	41.500	64.800	0.401
58.100	160.100	41.200	64.700	0.404
57.900	158.700	40.900	64.700	0.408
57.700	157.300	40.600	64.700	0.411
57.200	155.900	40.100	64.600	0.415
57.000	154.500	40.200	64.600	0.418
56.700	153.100	39.900	64.600	0.422
56.300	151.700	39.300	64.500	0.425
56.400	150.200	39.200	64.500	0.429
56.600	148.800	39.500	64.400	0.433
57.000	147.400	39.900	64.400	0.437
58.200	146.000	40.200	64.300	0.441
59.400	144.600	41.300	64.300	0.444
60.000	143.200	44.000	64.200	0.448
60.500	141.800	48.300	64.100	0.452
64.800	140.500	52.600	64.100	0.456
68.500	139.200	56.600	64.000	0.460
72.700	137.900	61.000	63.900	0.463
76.600	136.700	65.500	63.800	0.467
80.300	135.400	70.000	63.800	0.471
83.700	134.300	74.100	63.700	0.474
86.700	133.100	77.800	63.700	0.478
89.100	132.000	81.200	63.600	0.482
91.400	131.000	83.600	63.600	0.485
93.400	129.900	85.300	63.500	0.489
95.600	128.900	86.900	63.500	0.492
97.400	127.900	88.500	63.400	0.496
99.400	126.900	90.500	63.400	0.499
100.700	126.000	92.900	63.300	0.503
101.800	125.000	94.800	63.300	0.506
103.300	124.100	96.100	63.300	0.510
104.400	123.300	97.200	63.200	0.513
105.200	122.400	98.300	63.200	0.516
105.700	121.500	99.600	63.200	0.520
105.900	120.700	100.500	63.100	0.523
106.000	119.900	101.200	63.100	0.526
105.400	119.100	101.900	63.100	0.529
104.700	118.400	102.000	63.100	0.533
103.600	117.600	101.700	63.100	0.536
102.100	116.800	101.100	63.000	0.540
100.100	116.100	100.100	63.100	0.543
97.700	115.400	98.900	63.100	0.547
95.000	114.600	96.900	63.100	0.550
92.300	113.900	94.700	63.100	0.554
90.500	113.200	92.300	63.100	0.558
88.500	112.500	89.000	63.100	0.561
86.700	111.800	85.900	63.100	0.565
85.400	111.100	83.600	63.200	0.568
84.400	110.400	81.600	63.200	0.572
83.200	109.800	80.200	63.200	0.575
82.300	109.100	79.600	63.200	0.579
81.300	108.500	79.000	63.200	0.583
80.400	107.800	77.900	63.200	0.586
79.300	107.200	76.700	63.200	0.590
78.300	106.600	75.100	63.200	0.593
77.200	106.000	73.800	63.200	0.597
76.200	105.400	72.500	63.300	0.600
75.200	104.800	71.200	63.300	0.604
74.200	104.200	70.100	63.300	0.608
73.300	103.600	68.700	63.300	0.611
72.400	103.100	67.000	63.300	0.615
71.500	102.500	65.700	63.300	0.618
70.600	101.900	64.400	63.400	0.622
69.800	101.400	63.200	63.400	0.625
68.900	100.900	62.100	63.400	0.628
68.100	100.400	61.200	63.400	0.632
67.300	99.800	60.500	63.400	0.635
66.600	99.300	59.700	63.400	0.639
65.800	98.800	59.200	63.400	0.642
65.200	98.300	58.600	63.500	0.645
64.500	97.800	57.900	63.500	0.649
63.900	97.400	57.400	63.500	0.652
63.300	96.900	56.800	63.500	0.655
62.600	96.400	56.100	63.500	0.659
62.100	96.000	55.600	63.500	0.662
61.600	95.500	55.000	63.500	0.665
61.200	95.100	54.400	63.500	0.668
60.600	94.600	53.900	63.500	0.671
60.100	94.200	53.600	63.500	0.674
59.600	93.800	53.100	63.500	0.677
59.200	93.400	52.700	63.500	0.680
58.700	93.000	52.200	63.500	0.684
58.300	92.600	51.700	63.600	0.687
57.800	92.200	51.200	63.600	0.689
57.500	91.800	50.900	63.600	0.692
57.000	91.400	50.500	63.600	0.695
56.600	91.000	50.200	63.600	0.698
56.400	90.700	50.100	63.600	0.701
56.100	90.300	49.700	63.500	0.704
55.800	89.900	49.500	63.500	0.707
55.700	89.600	49.300	63.500	0.709
55.700	89.200	49.100	63.500	0.712
55.400	88.900	49.100	63.500	0.715
55.100	88.600	49.100	63.500	0.717
54.900	88.200	49.100	63.500	0.720
54.600	87.900	49.300	63.500	0.723
54.100	87.600	49.000	63.500	0.725
53.600	87.300	48.800	63.500	0.728
53.200	87.000	48.600	63.500	0.730
52.700	86.700	48.200	63.500	0.733
52.100	86.400	48.000	63.500	0.735
51.600	86.100	47.700	63.500	0.738
51.100	85.800	47.300	63.500	0.741
50.500	85.500	46.700	63.500	0.743
50.100	85.200	46.300	63.500	0.745
49.600	84.900	45.900	63.500	0.748
49.300	84.600	45.600	63.500	0.750
49.600	84.400	45.500	63.500	0.753
49.800	84.100	45.200	63.500	0.755
50.300	83.800	45.300	63.500	0.757
52.400	83.600	45.800	63.400	0.759
56.500	83.300	46.700	63.400	0.761
60.500	83.100	47.600	63.400	0.762
63.600	82.900	50.200	63.300	0.764
67.200	82.700	54.200	63.200	0.765
71.600	82.500	58.300	63.200	0.766
75.300	82.300	62.300	63.100	0.767
80.200	82.600	67.200	63.200	0.765
83.600	82.400	72.300	63.200	0.767
86.600	82.300	75.700	63.200	0.768
89.500	82.200	78.400	63.200	0.769
92.000	82.100	80.800	63.200	0.770
94.000	81.900	83.300	63.200	0.771
95.900	81.800	85.700	63.100	0.772
97.600	81.700	87.500	63.100	0.772
99.100	81.600	89.600	63.100	0.773
101.000	81.600	91.300	63.100	0.774
102.200	81.500	92.500	63.100	0.775
103.400	81.400	94.500	63.100	0.775
104.600	81.300	96.100	63.100	0.776
105.500	81.200	97.200	63.100	0.776
106.300	81.200	98.700	63.100	0.777
106.700	81.100	99.700	63.100	0.777
106.900	81.000	100.500	63.000	0.778
106.800	81.000	101.000	63.000	0.778
106.200	80.900	101.400	63.000	0.779
105.400	80.800	101.500	63.000	0.780
104.000	80.800	101.300	63.000	0.780
102.100	80.700	100.700	63.000	0.781
99.800	80.600	99.600	63.000	0.781
97.000	80.500	97.900	63.000	0.782
93.900	80.400	95.900	63.000	0.783
91.500	80.300	93.600	63.000	0.784
89.500	80.200	90.600	63.000	0.785
87.500	80.100	86.900	63.000	0.786
85.800	80.000	83.700	63.000	0.787
84.600	79.900	81.500	63.000	0.789
83.600	79.800	79.600	63.000	0.790
82.500	79.700	78.500	63.000	0.791
81.500	79.600	77.800	63.000	0.792
80.600	79.400	76.900	63.000	0.793
79.500	79.300	75.400	63.000	0.794
78.400	79.200	74.100	63.000	0.795
77.300	79.100	72.900	63.000	0.796
76.100	79.000	71.400	63.000	0.798
75.000	78.800	69.800	63.000	0.799
73.800	78.700	68.200	63.000	0.800
72.800	78.600	66.600	63.000	0.801
71.800	78.500	64.900	63.000	0.803
70.700	78.300	63.400	63.000	0.804
69.800	78.200	62.200	63.000	0.805
68.900	78.100	61.100	63.000	0.806
68.000	78.000	60.000	63.000	0.808
67.100	77.800	59.300	62.900	0.809
66.300	77.700	58.400	62.900	0.810
65.600	77.600	57.700	62.900	0.811
64.800	77.400	57.300	62.900	0.813
64.200	77.300	56.700	62.900	0.814
63.600	77.200	56.100	62.900	0.815
63.000	77.000	55.600	62.900	0.816
62.400	76.900	55.100	62.900	0.818
61.900	76.800	54.400	62.900	0.819
61.300	76.700	54.200	62.900	0.820
60.800	76.500	53.900	62.900	0.821
60.300	76.400	53.400	62.900	0.823
59.800	76.300	52.900	62.900	0.824
59.400	76.200	52.400	62.900	0.825
59.000	76.000	51.900	62.800	0.826
58.400	75.900	51.500	62.800	0.828
58.000	75.800	51.100	62.800	0.829
57.600	75.700	50.700	62.800	0.830
57.200	75.600	50.600	62.800	0.831
56.800	75.400	50.100	62.800	0.833
56.400	75.300	49.500	62.800	0.834
56.100	75.200	49.500	62.800	0.835
55.800	75.100	49.100	62.800	0.836
55.500	75.000	48.700	62.800	0.837
55.200	74.800	48.500	62.700	0.838
55.100	74.700	48.700	62.700	0.839
55.000	74.600	48.700	62.700	0.840
54.800	74.500	48.600	62.700	0.841
54.700	74.400	48.500	62.700	0.842
54.600	74.300	48.700	62.600	0.843
54.600	74.200	48.600	62.600	0.844
54.200	74.000	48.500	62.600	0.845
53.700	73.900	48.300	62.500	0.846
53.300	73.800	48.300	62.500	0.846
52.900	73.700	48.100	62.400	0.847
52.400	73.500	48.200	62.300	0.847
51.900	73.400	47.600	62.200	0.847
51.500	73.300	47.300	62.100	0.847
51.000	73.100	47.100	62.000	0.848
50.600	73.000	47.100	61.900	0.848
50.200	72.900	46.600	61.800	0.848
50.000	72.700	46.100	61.600	0.848
50.000	72.600	46.000	61.500	0.848
50.200	72.500	45.800	61.400	0.847
50.400	72.300	45.800	61.300	0.847
51.700	72.200	46.200	61.200	0.847
55.400	72.100	46.800	61.100	0.847
59.700	72.000	47.800	60.900	0.847
63.000	71.900	49.500	60.800	0.846
65.400	71.800	53.100	60.800	0.846
69.900	71.800	57.300	60.700	0.846
76.700	71.700	61.500	60.700	0.846
80.000	71.700	66.100	60.700	0.846
83.400	71.700	71.600	60.700	0.847
86.900	71.700	75.800	60.700	0.847
91.000	71.700	78.500	60.800	0.847
93.300	71.700	81.500	60.800	0.848
95.300	71.800	84.400	60.900	0.848
97.400	71.800	86.900	60.900	0.849
99.200	71.900	88.600	61.000	0.849
101.000	71.900	90.400	61.100	0.850
102.700	72.000	92.200	61.200	0.850
104.300	72.000	93.900	61.300	0.851
105.700	72.100	95.800	61.400	0.852
107.000	72.200	97.600	61.500	0.853
108.000	72.300	99.100	61.700	0.853
108.900	72.400	100.600	61.800	0.854
109.600	72.500	101.700	62.000	0.855
109.800	72.600	102.700	62.100	0.856
109.900	72.700	103.500	62.300	0.857
109.600	72.700	104.100	62.400	0.858
108.800	72.800	104.300	62.600	0.859
107.500	72.900	104.400	62.800	0.861
106.100	73.000	103.800	62.900	0.862
104.200	73.100	103.200	63.100	0.863
101.600	73.200	102.000	63.300	0.864
98.500	73.300	100.100	63.400	0.866
95.200	73.300	98.200	63.600	0.867
93.200	73.400	95.700	63.700	0.869
91.100	73.400	92.500	63.900	0.870
89.000	73.500	89.000	64.000	0.871
87.500	73.500	85.900	64.100	0.872
86.600	73.500	83.800	64.200	0.873
85.600	73.600	81.900	64.300	0.874
84.700	73.600	80.900	64.400	0.875
83.900	73.600	80.300	64.500	0.876
82.800	73.700	79.500	64.600	0.877
81.800	73.700	78.400	64.700	0.878
80.700	73.700	76.900	64.800	0.879
79.600	73.700	75.400	64.900	0.880
78.700	73.800	74.000	65.000	0.881
77.400	73.800	72.500	65.100	0.882
76.300	73.800	71.200	65.200	0.883
75.300	73.800	69.600	65.200	0.884
74.400	73.800	68.200	65.300	0.885
73.300	73.800	67.000	65.400	0.885
72.400	73.800	65.800	65.400	0.886
71.600	73.800	64.700	65.500	0.887
70.800	73.800	63.500	65.600	0.888
70.000	73.800	62.400	65.600	0.888
69.100	73.800	61.500	65.700	0.889
68.400	73.800	60.900	65.700	0.890
67.700	73.800	60.400	65.800	0.891
66.900	73.800	59.800	65.800	0.891
66.300	73.800	59.300	65.900	0.892
65.800	73.800	58.600	65.900	0.893
65.200	73.800	58.100	65.900	0.893
64.600	73.800	57.600	66.000	0.894
64.000	73.800	57.100	66.000	0.895
63.500	73.800	56.800	66.100	0.895
63.100	73.800	56.200	66.100	0.896
62.500	73.800	55.800	66.200	0.897
62.000	73.800	55.300	66.200	0.897
61.600	73.800	54.800	66.200	0.898
61.100	73.800	54.700	66.300	0.899
60.600	73.700	54.400	66.300	0.899
60.100	73.700	54.000	66.400	0.900
59.700	73.700	53.500	66.400	0.901
59.300	73.700	53.200	66.400	0.901
58.900	73.700	52.900	66.500	0.902
58.300	73.700	52.500	66.500	0.902
58.000	73.700	52.100	66.500	0.903
57.700	73.700	51.800	66.600	0.904
57.400	73.600	51.500	66.600	0.904
57.200	73.600	51.200	66.600	0.905
57.100	73.600	51.000	66.700	0.906
56.600	73.600	50.800	66.700	0.906
56.500	73.600	50.800	66.700	0.907
56.600	73.600	50.800	66.800	0.907
56.200	73.600	50.900	66.800	0.908
55.900	73.600	50.600	66.800	0.908
55.600	73.500	50.400	66.900	0.909
55.200	73.500	50.600	66.900	0.910
54.800	73.500	50.700	66.900	0.910
54.100	73.500	50.400	66.900	0.911
53.600	73.500	50.100	67.000	0.911
53.200	73.500	49.800	67.000	0.912
52.700	73.500	49.400	67.000	0.913
52.100	73.400	49.000	67.100	0.913
51.600	73.400	48.500	67.100	0.914
51.100	73.400	48.100	67.100	0.914
50.800	73.400	47.700	67.100	0.915
51.000	73.400	47.600	67.200	0.916
51.200	73.300	47.500	67.200	0.916
52.200	73.300	47.500	67.200	0.917
54.800	73.300	47.800	67.300	0.917
59.000	73.300	48.800	67.300	0.918
62.600	73.300	50.100	67.300	0.918
65.800	73.300	52.400	67.300	0.918
68.800	73.400	56.300	67.300	0.918
75.200	73.400	60.400	67.300	0.918
79.900	73.400	64.700	67.400	0.918
83.400	73.400	69.500	67.400	0.917
87.000	73.500	74.300	67.400	0.917
90.500	73.500	78.300	67.400	0.917
93.700	73.500	81.300	67.400	0.917
96.100	73.500	84.100	67.400	0.917
98.300	73.500	86.800	67.400	0.917
100.200	73.600	89.100	67.400	0.917
102.200	73.600	91.200	67.500	0.917
104.100	73.600	93.000	67.500	0.917
105.900	73.600	95.200	67.500	0.916
107.300	73.700	97.400	67.500	0.916
108.800	73.700	99.100	67.500	0.916
110.100	73.700	100.700	67.500	0.916
111.200	73.700	102.200	67.500	0.916
112.000	73.700	103.400	67.600	0.916
112.500	73.800	104.600	67.600	0.916
112.700	73.800	105.800	67.600	0.916
112.700	73.800	106.500	67.600	0.916
112.100	73.800	107.100	67.600	0.916
111.300	73.900	107.300	67.700	0.916
110.100	73.900	107.200	67.700	0.916
108.400	73.900	106.800	67.700	0.916
106.200	73.900	105.900	67.700	0.916
103.400	73.900	104.700	67.700	0.916
100.200	74.000	102.900	67.700	0.916
96.700	74.000	100.700	67.800	0.916
94.400	74.000	97.900	67.800	0.916
92.300	74.000	94.600	67.800	0.916
90.100	74.000	90.700	67.800	0.916
88.400	74.000	87.000	67.800	0.916
87.500	74.000	84.400	67.800	0.916
86.400	74.000	82.700	67.900	0.916
86.400	74.100	81.400	67.900	0.916
85.400	74.100	80.600	67.900	0.916
84.300	74.100	79.500	67.900	0.916
83.300	74.100	78.000	67.900	0.916
82.200	74.100	76.700	67.900	0.916
81.100	74.100	75.300	67.900	0.916
80.000	74.100	73.900	67.900	0.916
78.900	74.200	72.100	67.900	0.916
77.800	74.200	70.400	67.900	0.915
76.700	74.200	69.000	67.900	0.915
75.600	74.200	67.400	67.900	0.915
74.600	74.200	66.000	67.900	0.915
73.800	74.200	65.100	67.900	0.915
72.800	74.200	64.100	67.900	0.915
71.800	74.200	63.000	67.900	0.915
71.000	74.200	62.300	67.900	0.915
70.300	74.200	61.700	67.900	0.915
69.500	74.300	60.900	67.900	0.915
68.600	74.300	60.300	67.900	0.915
67.900	74.300	59.700	67.900	0.914
67.200	74.300	59.200	67.900	0.914
66.600	74.300	58.600	67.900	0.914
65.900	74.300	57.700	67.900	0.914
65.400	74.300	57.100	67.900	0.914
64.800	74.300	56.700	67.900	0.914
64.300	74.300	56.400	67.900	0.914
63.700	74.300	55.900	68.000	0.914
63.200	74.300	55.600	68.000	0.914
62.700	74.400	55.200	68.000	0.914
62.100	74.400	54.900	68.000	0.914
61.700	74.400	54.500	68.000	0.914
61.300	74.400	54.300	68.000	0.914
60.800	74.400	53.800	68.000	0.914
60.200	74.400	53.400	68.000	0.914
59.700	74.400	52.900	68.000	0.914
59.300	74.400	52.500	68.000	0.914
58.900	74.400	52.300	68.000	0.914
58.400	74.400	52.000	68.000	0.914
58.100	74.400	51.700	68.000	0.914
57.800	74.400	51.400	68.000	0.914
57.500	74.400	50.900	68.000	0.914
57.200	74.500	50.500	68.000	0.914
57.000	74.500	50.700	68.100	0.914
56.900	74.500	50.600	68.100	0.914
56.600	74.500	50.400	68.100	0.914
56.400	74.500	50.400	68.100	0.914
56.300	74.500	50.400	68.100	0.914
56.000	74.500	50.500	68.100	0.914
55.500	74.500	50.400	68.100	0.914
55.200	74.500	50.300	68.100	0.914
54.800	74.500	50.000	68.100	0.914
54.300	74.500	49.900	68.100	0.914
53.800	74.500	49.600	68.100	0.914
53.300	74.500	49.100	68.100	0.914
52.600	74.600	48.500	68.100	0.914
52.000	74.600	48.000	68.100	0.914
51.600	74.600	47.800	68.100	0.914
51.100	74.600	47.500	68.100	0.914
50.600	74.600	47.000	68.200	0.914
50.600	74.600	46.800	68.200	0.914
50.900	74.600	46.800	68.200	0.914
51.600	74.600	47.500	68.200	0.914
53.700	74.500	48.400	68.200	0.915
57.700	74.500	49.200	68.200	0.915
61.900	74.500	51.000	68.200	0.915
65.300	74.500	54.600	68.100	0.915
69.100	74.500	58.700	68.100	0.915
72.800	74.400	62.900	68.100	0.915
78.100	74.400	67.500	68.100	0.915
82.900	74.500	72.400	68.100	0.915
86.300	74.500	76.800	68.200	0.915
89.500	74.500	80.100	68.200	0.915
92.400	74.500	82.800	68.200	0.915
95.400	74.600	85.600	68.200	0.915
97.500	74.600	87.700	68.200	0.915
99.500	74.600	89.800	68.300	0.915
101.400	74.600	91.900	68.300	0.915
103.200	74.600	93.900	68.300	0.915
104.700	74.700	95.700	68.300	0.915
106.000	74.700	97.400	68.400	0.915
107.500	74.700	99.300	68.400	0.915
108.700	74.700	100.600	68.400	0.916
109.900	74.700	102.000	68.400	0.916
110.600	74.700	103.200	68.400	0.916
111.100	74.800	104.000	68.500	0.916
111.300	74.800	104.900	68.500	0.916
111.300	74.800	105.600	68.500	0.916
110.800	74.800	106.100	68.500	0.916
110.000	74.800	105.900	68.500	0.916
108.800	74.800	105.400	68.500	0.916
107.200	74.800	104.700	68.500	0.916
104.900	74.800	103.400	68.600	0.916
102.100	74.900	101.600	68.600	0.916
98.900	74.900	99.400	68.600	0.916
95.800	74.900	96.900	68.600	0.916
93.700	74.900	93.500	68.600	0.916
91.400	74.900	89.700	68.600	0.916
89.400	74.900	86.400	68.600	0.916
87.900	74.900	83.700	68.600	0.915
86.800	74.900	81.900	68.600	0.915
85.700	74.900	80.600	68.600	0.915
84.700	74.900	79.600	68.600	0.915
83.600	74.900	78.700	68.600	0.915
82.600	74.900	77.300	68.600	0.915
81.500	74.900	75.900	68.600	0.915
80.400	74.900	74.100	68.600	0.915
79.300	75.000	72.500	68.600	0.915
78.100	75.000	70.600	68.600	0.915
76.900	75.000	68.900	68.600	0.915
75.900	75.000	67.300	68.600	0.915
74.800	75.000	65.900	68.600	0.914
73.800	75.000	64.500	68.600	0.914
72.800	75.000	63.100	68.600	0.914
71.900	75.000	62.400	68.600	0.914
71.000	75.000	61.600	68.600	0.914
70.100	75.000	60.700	68.600	0.914
69.200	75.000	60.000	68.600	0.914
68.500	75.000	59.300	68.600	0.914
67.700	75.000	58.500	68.600	0.914
67.000	75.000	57.800	68.600	0.914
66.300	75.000	57.200	68.600	0.914
65.700	75.100	56.800	68.600	0.914
65.000	75.100	56.300	68.600	0.914
64.400	75.100	55.700	68.600	0.914
63.800	75.100	55.200	68.600	0.914
63.300	75.100	54.700	68.600	0.914
62.700	75.100	54.400	68.600	0.914
62.100	75.100	54.000	68.600	0.913
61.800	75.100	53.600	68.600	0.913
61.300	75.100	53.200	68.600	0.913
60.700	75.100	52.600	68.600	0.913
60.200	75.100	52.100	68.600	0.913
59.800	75.100	51.700	68.600	0.913
59.300	75.100	51.600	68.600	0.913
58.800	75.100	51.300	68.600	0.913
58.400	75.100	50.800	68.600	0.913
58.000	75.100	50.600	68.600	0.913
57.600	75.200	50.300	68.600	0.913
57.100	75.200	50.000	68.600	0.913
56.900	75.200	49.700	68.600	0.913
56.700	75.200	49.400	68.600	0.913
56.600	75.200	49.300	68.600	0.913
56.400	75.200	49.000	68.600	0.913
56.100	75.200	48.900	68.600	0.913
56.100	75.200	48.900	68.600	0.913
56.100	75.200	48.900	68.600	0.913
55.800	75.200	48.900	68.600	0.913
55.300	75.200	49.000	68.600	0.913
55.100	75.200	48.800	68.600	0.913
54.700	75.200	48.700	68.600	0.913
54.100	75.200	48.500	68.600	0.913
53.600	75.200	48.400	68.600	0.913
53.300	75.200	48.500	68.600	0.913
52.800	75.200	47.900	68.600	0.913
52.200	75.200	47.600	68.600	0.913
51.700	75.200	47.400	68.700	0.913
51.400	75.200	47.100	68.700	0.913
51.100	75.200	47.000	68.700	0.913
50.700	75.200	47.100	68.700	0.913
