"sep=\t"
Sampling Freq: 100Hz, 0.01 seconds between each sample
AO	Average AO	PW	Average PW	Pd/Pa
75.000	88.600	69.800	84.900	0.959
74.400	88.600	68.900	84.900	0.959
73.800	88.600	68.300	84.900	0.959
73.300	88.600	68.100	84.900	0.959
72.900	88.500	67.900	84.900	0.958
72.300	88.500	68.400	84.800	0.958
71.700	88.500	69.400	84.800	0.959
71.100	88.500	71.200	84.800	0.959
71.500	88.500	73.100	84.800	0.959
72.900	88.500	75.700	84.800	0.959
73.500	88.400	76.300	84.800	0.959
73.400	88.400	74.500	84.800	0.959
75.000	88.400	74.700	84.800	0.959
79.400	88.400	80.700	84.800	0.959
84.900	88.500	90.300	84.900	0.959
89.300	88.500	97.300	84.900	0.960
93.200	88.500	99.600	85.000	0.960
95.900	88.500	99.700	85.000	0.960
98.500	88.500	100.100	85.000	0.960
101.100	88.500	101.200	85.000	0.960
102.500	88.500	102.400	85.000	0.960
103.500	88.600	103.700	85.000	0.960
104.800	88.600	104.900	85.000	0.960
105.900	88.600	106.000	85.000	0.960
106.900	88.600	106.900	85.000	0.960
107.500	88.600	107.700	85.000	0.960
108.300	88.600	108.100	85.000	0.960
108.800	88.600	108.100	85.000	0.960
109.200	88.600	108.000	85.000	0.960
109.500	88.600	107.900	85.000	0.960
109.800	88.600	107.500	85.000	0.960
109.500	88.600	106.800	85.000	0.960
109.200	88.600	105.900	85.000	0.960
108.500	88.600	104.000	85.000	0.960
107.300	88.600	101.000	85.000	0.959
105.000	88.600	96.800	85.000	0.959
101.500	88.600	91.100	85.000	0.959
97.900	88.600	85.700	84.900	0.959
96.400	88.600	84.400	84.900	0.958
95.600	88.600	87.000	84.900	0.958
95.300	88.600	88.400	84.900	0.959
95.100	88.600	87.800	85.000	0.959
95.000	88.600	87.000	85.000	0.959
95.300	88.600	87.100	85.000	0.959
95.300	88.700	87.100	85.000	0.959
95.300	88.700	87.100	85.000	0.959
95.200	88.700	87.100	85.000	0.959
94.900	88.700	86.700	85.000	0.959
94.800	88.700	86.600	85.100	0.959
93.900	88.800	86.800	85.100	0.959
92.500	88.800	86.800	85.100	0.959
91.000	88.800	86.300	85.100	0.959
90.300	88.800	85.800	85.100	0.959
90.000	88.800	85.000	85.100	0.959
103.600	88.900	84.500	85.100	0.958
83.100	88.900	84.300	85.200	0.958
93.800	88.900	84.000	85.200	0.958
90.400	88.900	83.400	85.200	0.958
94.700	89.000	83.000	85.200	0.958
88.900	89.000	82.700	85.200	0.958
90.500	89.000	82.500	85.200	0.958
91.300	89.000	81.800	85.200	0.957
92.300	89.100	81.100	85.300	0.957
90.700	89.100	80.600	85.300	0.957
90.700	89.200	80.200	85.300	0.957
91.700	89.200	80.200	85.300	0.956
91.900	89.200	80.300	85.300	0.956
92.000	89.300	80.300	85.300	0.956
91.700	89.300	79.900	85.400	0.955
91.000	89.400	79.600	85.400	0.955
91.100	89.400	78.700	85.400	0.955
91.200	89.500	77.600	85.400	0.954
91.500	89.600	76.700	85.400	0.954
91.800	89.600	76.600	85.400	0.953
91.600	89.700	76.400	85.400	0.953
91.600	89.700	75.900	85.400	0.952
91.700	89.800	75.200	85.500	0.952
92.000	89.900	74.200	85.500	0.951
91.900	89.900	72.900	85.500	0.951
91.800	90.000	72.000	85.500	0.950
92.000	90.100	71.800	85.500	0.949
92.300	90.200	72.000	85.500	0.948
92.700	90.200	72.200	85.500	0.948
92.500	90.300	72.800	85.500	0.947
92.900	90.400	74.300	85.600	0.946
93.000	90.500	76.100	85.600	0.946
93.100	90.600	78.300	85.700	0.945
93.100	90.700	79.200	85.700	0.945
92.800	90.800	78.300	85.700	0.944
92.400	90.900	78.600	85.800	0.944
92.500	91.000	84.000	85.800	0.943
92.700	91.000	93.100	85.900	0.943
93.100	91.200	100.000	86.000	0.943
93.600	91.200	102.300	86.000	0.943
93.400	91.200	102.700	86.100	0.943
93.300	91.200	103.700	86.100	0.944
93.300	91.200	106.400	86.100	0.945
93.300	91.100	109.300	86.200	0.945
93.000	91.100	111.600	86.200	0.946
92.700	91.100	112.900	86.200	0.947
91.900	91.000	114.000	86.300	0.948
92.100	90.900	115.400	86.300	0.949
92.100	90.800	116.800	86.400	0.951
92.100	90.800	117.800	86.400	0.952
91.800	90.700	118.400	86.400	0.953
92.100	90.600	118.300	86.500	0.954
91.900	90.600	118.300	86.500	0.955
92.000	90.500	118.400	86.600	0.957
91.700	90.400	117.800	86.600	0.958
91.900	90.400	117.100	86.700	0.959
91.800	90.300	116.400	86.700	0.960
91.900	90.200	115.000	86.800	0.961
91.800	90.200	112.600	86.800	0.963
92.200	90.100	109.300	86.900	0.964
92.300	90.100	104.100	86.900	0.964
92.200	90.100	97.800	86.900	0.965
92.300	90.100	92.500	87.000	0.966
91.900	90.100	92.200	87.000	0.966
92.200	90.000	95.700	87.100	0.967
91.800	90.000	96.300	87.100	0.967
91.700	90.000	94.900	87.100	0.968
91.800	90.000	94.200	87.200	0.969
91.600	90.000	94.500	87.200	0.969
91.700	90.000	95.500	87.300	0.970
91.600	90.000	96.000	87.300	0.970
91.700	90.000	95.600	87.300	0.971
91.800	90.000	95.300	87.400	0.971
91.800	90.000	94.800	87.400	0.971
91.600	90.000	94.500	87.500	0.972
91.900	90.000	93.700	87.500	0.972
91.800	90.000	92.900	87.500	0.972
91.900	90.000	92.300	87.600	0.973
91.900	90.000	91.700	87.600	0.973
91.900	90.100	91.200	87.600	0.973
91.900	90.100	90.500	87.700	0.973
92.100	90.100	89.900	87.700	0.974
92.000	90.100	89.800	87.800	0.974
92.000	90.100	89.000	87.800	0.974
92.100	90.200	88.200	87.800	0.974
92.100	90.200	87.800	87.900	0.974
91.900	90.200	87.200	87.900	0.974
91.900	90.300	86.500	87.900	0.974
91.800	90.300	86.100	88.000	0.974
91.300	90.300	86.000	88.000	0.974
90.400	90.400	86.100	88.000	0.974
91.000	90.400	86.000	88.100	0.974
91.800	90.500	85.300	88.100	0.974
91.800	90.500	84.400	88.100	0.974
91.400	90.600	83.400	88.200	0.974
91.400	90.600	82.900	88.200	0.973
91.600	90.700	82.300	88.200	0.973
92.900	90.700	81.600	88.300	0.973
93.200	90.800	80.900	88.300	0.973
93.000	90.900	80.100	88.300	0.972
92.800	90.900	79.300	88.400	0.972
93.300	91.000	78.400	88.400	0.971
93.700	91.100	77.200	88.400	0.971
93.900	91.200	76.700	88.500	0.970
93.400	91.300	77.000	88.500	0.970
93.200	91.300	77.100	88.500	0.969
93.600	91.400	76.800	88.600	0.969
94.200	91.500	77.400	88.600	0.968
94.700	91.600	78.600	88.700	0.968
94.300	91.700	80.700	88.700	0.967
94.700	91.800	82.600	88.800	0.967
94.100	91.900	82.900	88.800	0.966
94.200	92.000	82.400	88.800	0.965
94.700	92.100	84.200	88.900	0.965
94.600	92.200	90.900	89.000	0.965
94.200	92.300	99.800	89.000	0.965
93.300	92.300	105.800	89.100	0.966
93.200	92.300	107.600	89.200	0.966
92.700	92.300	108.300	89.200	0.966
92.800	92.300	110.300	89.300	0.967
92.500	92.300	113.400	89.300	0.968
92.400	92.300	116.000	89.400	0.969
92.400	92.300	117.800	89.500	0.970
93.100	92.200	119.600	89.500	0.971
93.200	92.200	121.800	89.600	0.972
93.200	92.100	123.700	89.700	0.974
92.800	92.100	125.000	89.800	0.975
92.800	92.000	125.700	89.900	0.977
92.700	91.900	126.100	89.900	0.978
92.800	91.900	126.200	90.000	0.980
92.800	91.800	126.000	90.100	0.982
92.900	91.700	125.500	90.200	0.983
92.700	91.700	125.500	90.300	0.985
92.800	91.600	125.100	90.300	0.986
92.900	91.500	124.100	90.400	0.988
92.800	91.500	122.800	90.500	0.989
93.000	91.400	120.700	90.600	0.991
92.800	91.400	117.700	90.700	0.992
92.900	91.300	113.500	90.800	0.994
92.800	91.300	107.300	90.900	0.995
92.800	91.300	100.700	90.900	0.996
92.700	91.300	98.200	91.000	0.997
92.700	91.300	100.300	91.100	0.998
92.600	91.300	101.500	91.100	0.998
92.500	91.300	100.800	91.200	0.999
92.500	91.300	100.700	91.300	1.000
92.400	91.300	101.500	91.400	1.001
92.500	91.300	102.300	91.500	1.002
92.300	91.300	101.900	91.500	1.002
92.400	91.300	101.200	91.600	1.003
92.300	91.300	100.800	91.700	1.004
92.400	91.300	100.600	91.700	1.005
92.400	91.300	100.100	91.800	1.005
92.400	91.300	99.600	91.900	1.006
92.300	91.400	98.900	92.000	1.006
92.400	91.400	98.100	92.000	1.007
92.600	91.400	97.300	92.100	1.008
92.600	91.400	96.500	92.200	1.008
92.500	91.500	95.800	92.200	1.008
92.200	91.500	95.300	92.300	1.009
92.200	91.500	94.400	92.400	1.009
91.900	91.500	93.500	92.400	1.010
92.000	91.600	92.900	92.500	1.010
92.100	91.600	92.200	92.500	1.010
92.100	91.600	91.400	92.600	1.010
92.000	91.700	90.700	92.700	1.010
92.500	91.700	89.900	92.700	1.011
92.200	91.800	89.400	92.800	1.011
92.200	91.800	89.500	92.800	1.011
92.100	91.900	89.600	92.900	1.011
92.100	91.900	89.100	92.900	1.011
92.100	92.000	88.600	93.000	1.011
91.900	92.000	87.600	93.000	1.011
91.900	92.100	86.400	93.100	1.011
91.900	92.100	85.700	93.100	1.011
92.200	92.200	85.500	93.200	1.011
91.900	92.300	84.800	93.200	1.011
92.000	92.300	84.100	93.300	1.011
91.900	92.400	83.600	93.400	1.010
92.000	92.500	82.600	93.400	1.010
92.000	92.500	81.800	93.500	1.010
91.900	92.600	80.600	93.500	1.010
91.800	92.700	79.900	93.600	1.009
92.100	92.800	80.100	93.600	1.009
91.900	92.800	80.200	93.700	1.009
91.800	92.900	79.800	93.700	1.008
91.800	93.000	80.200	93.800	1.008
92.100	93.100	81.600	93.800	1.007
92.100	93.200	83.900	93.800	1.007
91.800	93.300	85.700	93.900	1.007
91.700	93.400	85.600	93.900	1.006
91.600	93.400	85.000	94.000	1.006
91.800	93.500	86.300	94.000	1.005
91.500	93.600	92.300	94.100	1.005
91.600	93.600	101.400	94.100	1.006
91.600	93.600	108.400	94.200	1.006
91.700	93.600	111.600	94.200	1.007
91.900	93.600	112.800	94.300	1.007
91.600	93.500	114.100	94.300	1.008
91.500	93.500	117.000	94.400	1.010
91.300	93.500	120.300	94.500	1.011
91.500	93.400	122.700	94.600	1.012
91.700	93.300	124.400	94.600	1.014
91.700	93.300	126.200	94.700	1.015
91.700	93.200	128.100	94.800	1.017
91.700	93.200	129.600	94.900	1.019
91.700	93.100	130.500	95.000	1.021
91.600	93.000	130.900	95.100	1.023
91.400	92.900	130.800	95.200	1.024
91.400	92.900	130.700	95.300	1.026
91.400	92.800	130.800	95.400	1.028
91.300	92.700	130.500	95.500	1.030
91.400	92.600	130.200	95.600	1.032
91.200	92.500	129.600	95.700	1.034
91.300	92.500	128.600	95.800	1.036
91.400	92.400	127.000	96.000	1.038
91.200	92.400	124.100	96.100	1.040
91.200	92.300	119.600	96.200	1.042
91.200	92.300	113.600	96.400	1.044
91.300	92.300	106.800	96.500	1.045
91.400	92.300	102.500	96.500	1.046
91.400	92.300	104.200	96.600	1.047
91.200	92.300	106.200	96.700	1.048
91.400	92.200	105.500	96.700	1.049
91.300	92.200	105.100	96.800	1.050
91.200	92.200	105.900	96.900	1.051
91.200	92.200	106.100	97.000	1.052
90.900	92.200	105.900	97.100	1.053
91.000	92.200	105.300	97.100	1.054
91.000	92.100	104.600	97.200	1.055
91.200	92.100	104.300	97.300	1.056
91.100	92.100	103.900	97.400	1.057
91.200	92.100	103.300	97.400	1.058
91.200	92.100	102.800	97.500	1.058
91.100	92.100	102.200	97.600	1.060
90.900	92.100	101.100	97.700	1.060
90.900	92.100	100.700	97.700	1.061
90.800	92.100	99.900	97.800	1.062
90.900	92.100	98.700	97.900	1.063
90.700	92.100	97.900	97.900	1.063
91.000	92.100	97.200	98.000	1.064
90.800	92.100	96.500	98.100	1.065
90.900	92.100	95.800	98.100	1.065
90.800	92.100	95.100	98.200	1.066
90.600	92.100	94.300	98.300	1.067
90.600	92.100	93.400	98.300	1.067
90.700	92.100	92.600	98.400	1.068
90.400	92.100	92.100	98.400	1.069
90.600	92.100	91.800	98.500	1.069
90.500	92.100	91.300	98.500	1.070
90.700	92.100	91.500	98.600	1.070
90.600	92.100	91.600	98.600	1.071
90.800	92.100	90.900	98.700	1.072
90.700	92.100	89.900	98.700	1.073
90.700	92.100	88.700	98.800	1.073
90.600	92.100	87.500	98.800	1.074
90.600	92.100	86.600	98.900	1.074
90.600	92.100	85.800	98.900	1.075
90.400	92.000	85.200	99.000	1.076
90.400	92.000	85.100	99.100	1.076
90.600	92.000	84.300	99.100	1.077
90.600	92.000	83.000	99.200	1.077
90.400	92.000	81.700	99.200	1.078
90.300	92.000	81.000	99.200	1.079
90.400	92.000	81.000	99.300	1.079
90.200	92.000	81.600	99.300	1.079
90.300	92.000	81.500	99.300	1.080
90.300	92.000	81.600	99.300	1.080
90.200	91.900	83.300	99.300	1.080
90.400	91.900	85.300	99.400	1.081
90.400	91.900	87.700	99.400	1.081
90.400	91.900	87.800	99.400	1.081
90.400	91.900	85.700	99.300	1.080
90.400	91.900	84.700	99.200	1.080
90.200	91.900	88.400	99.200	1.079
90.100	91.900	97.200	99.100	1.079
90.100	91.900	106.500	99.100	1.079
90.200	91.800	111.800	99.100	1.079
90.200	91.800	114.100	99.100	1.080
90.200	91.800	115.300	99.200	1.080
90.300	91.800	117.600	99.200	1.080
90.200	91.800	120.100	99.200	1.080
90.200	91.800	121.900	99.200	1.081
90.000	91.800	123.600	99.200	1.081
90.100	91.800	125.200	99.300	1.082
90.100	91.800	126.500	99.300	1.082
90.100	91.800	127.800	99.300	1.083
90.000	91.800	128.600	99.400	1.083
90.000	91.700	129.400	99.400	1.084
90.000	91.700	129.800	99.500	1.085
90.000	91.700	130.100	99.600	1.085
90.000	91.700	130.300	99.600	1.086
89.900	91.700	130.300	99.700	1.087
90.000	91.700	130.000	99.800	1.088
90.200	91.700	129.400	99.900	1.089
90.100	91.700	128.500	100.000	1.091
89.900	91.700	127.000	100.200	1.093
90.100	91.700	124.700	100.300	1.094
90.000	91.700	120.000	100.400	1.095
89.800	91.700	113.600	100.500	1.096
89.800	91.600	106.100	100.500	1.097
89.800	91.600	101.500	100.600	1.097
89.900	91.600	103.400	100.600	1.098
90.000	91.600	106.400	100.600	1.099
90.100	91.600	106.300	100.700	1.099
90.200	91.600	104.800	100.700	1.100
90.100	91.600	104.700	100.800	1.100
89.900	91.600	105.000	100.800	1.101
89.800	91.600	105.500	100.900	1.101
89.700	91.600	105.600	100.900	1.102
89.700	91.600	105.100	101.000	1.103
89.800	91.600	104.300	101.000	1.103
89.900	91.500	103.600	101.100	1.104
90.100	91.500	103.400	101.100	1.105
90.300	91.500	102.700	101.200	1.105
90.100	91.500	101.800	101.200	1.106
90.000	91.500	100.900	101.300	1.107
89.900	91.500	100.200	101.300	1.107
89.800	91.500	99.300	101.400	1.108
89.700	91.500	98.800	101.400	1.108
89.700	91.500	98.300	101.500	1.109
89.600	91.500	97.100	101.500	1.110
89.700	91.500	96.400	101.500	1.110
89.600	91.500	95.900	101.600	1.111
89.800	91.400	95.100	101.600	1.111
89.900	91.400	94.700	101.700	1.112
89.900	91.400	93.800	101.700	1.112
89.800	91.400	93.000	101.700	1.113
89.800	91.400	92.100	101.800	1.113
89.800	91.400	91.200	101.800	1.114
89.800	91.400	90.600	101.800	1.114
89.600	91.400	90.100	101.900	1.115
89.700	91.400	90.000	101.900	1.115
89.800	91.400	90.200	102.000	1.116
89.800	91.400	89.900	102.000	1.117
89.800	91.300	89.000	102.100	1.117
89.900	91.300	88.200	102.100	1.118
90.000	91.300	87.600	102.100	1.119
90.100	91.300	86.900	102.200	1.119
90.100	91.300	86.500	102.200	1.120
90.000	91.300	86.400	102.300	1.121
90.000	91.200	86.900	102.300	1.121
90.000	91.200	86.500	102.300	1.122
90.000	91.200	85.400	102.400	1.122
90.000	91.200	83.600	102.400	1.123
90.000	91.200	82.300	102.400	1.123
90.000	91.100	82.200	102.400	1.123
90.100	91.100	82.300	102.400	1.123
90.100	91.100	82.200	102.300	1.123
90.000	91.100	81.500	102.200	1.122
90.100	91.100	81.500	102.100	1.121
89.800	91.100	83.000	102.000	1.120
90.000	91.100	84.800	101.900	1.120
90.000	91.000	86.700	101.800	1.119
90.100	91.000	87.000	101.700	1.117
90.000	91.000	85.300	101.600	1.116
89.900	91.000	83.700	101.400	1.115
90.000	91.000	86.200	101.300	1.113
90.100	91.000	95.300	101.200	1.112
90.000	91.000	106.000	101.100	1.112
90.000	91.000	113.100	101.300	1.114
90.100	91.000	116.100	101.300	1.114
90.000	91.000	116.900	101.300	1.114
90.100	90.900	118.300	101.300	1.113
90.000	90.900	120.900	101.200	1.113
90.000	90.900	123.300	101.200	1.113
90.000	90.900	124.800	101.200	1.113
90.100	90.900	126.000	101.200	1.114
90.200	90.900	127.600	101.200	1.114
90.100	90.900	129.700	101.300	1.114
89.900	90.900	131.300	101.300	1.115
89.900	90.900	131.800	101.300	1.115
90.000	90.800	132.300	101.400	1.116
89.900	90.800	133.000	101.400	1.116
90.100	90.800	133.600	101.500	1.117
90.000	90.800	133.800	101.600	1.118
90.300	90.800	133.600	101.700	1.120
90.400	90.800	133.100	101.800	1.121
90.700	90.800	132.500	102.000	1.123
90.400	90.800	131.400	102.100	1.125
90.100	90.800	129.600	102.200	1.126
90.300	90.700	126.800	102.300	1.127
90.400	90.700	122.200	102.400	1.129
90.400	90.700	115.100	102.500	1.129
90.200	90.700	107.500	102.500	1.130
90.400	90.700	104.800	102.500	1.130
90.300	90.700	108.300	102.500	1.130
90.200	90.700	110.800	102.600	1.131
90.200	90.700	110.500	102.600	1.131
90.200	90.700	109.200	102.600	1.132
90.200	90.700	108.600	102.700	1.133
90.300	90.700	108.600	102.700	1.133
90.500	90.600	108.600	102.800	1.134
90.500	90.600	108.300	102.800	1.134
90.400	90.600	108.100	102.900	1.135
90.400	90.600	107.600	102.900	1.136
90.300	90.600	107.200	103.000	1.136
90.400	90.600	106.500	103.000	1.137
90.200	90.600	105.700	103.100	1.138
90.300	90.600	104.600	103.100	1.138
90.200	90.600	103.500	103.200	1.139
90.400	90.600	102.700	103.200	1.139
90.400	90.600	101.900	103.300	1.140
90.600	90.600	101.300	103.300	1.141
90.300	90.600	100.500	103.400	1.141
90.400	90.500	99.600	103.400	1.142
90.500	90.500	98.700	103.400	1.142
90.600	90.500	97.800	103.500	1.143
90.500	90.500	97.100	103.500	1.143
90.600	90.500	96.300	103.500	1.144
90.700	90.500	95.700	103.600	1.144
90.700	90.500	95.000	103.600	1.145
90.500	90.500	93.900	103.700	1.145
90.600	90.500	93.300	103.700	1.146
90.600	90.500	92.900	103.700	1.146
90.700	90.500	92.400	103.800	1.147
90.600	90.500	92.200	103.800	1.147
90.900	90.500	92.300	103.900	1.148
90.800	90.500	92.200	103.900	1.148
90.800	90.500	91.600	103.900	1.149
90.800	90.500	91.200	104.000	1.150
90.800	90.500	90.400	104.000	1.150
90.800	90.500	89.500	104.100	1.151
90.600	90.400	88.800	104.100	1.151
90.600	90.400	88.700	104.100	1.152
90.500	90.400	88.900	104.200	1.152
90.700	90.400	88.900	104.200	1.152
90.600	90.400	87.900	104.200	1.152
90.800	90.400	86.300	104.200	1.152
90.700	90.400	84.900	104.200	1.152
91.000	90.400	85.100	104.200	1.152
91.000	90.400	85.600	104.100	1.151
90.900	90.400	84.800	104.000	1.150
90.800	90.400	83.900	103.900	1.149
90.700	90.400	83.500	103.800	1.148
90.600	90.400	85.100	103.600	1.146
90.600	90.400	88.000	103.500	1.145
90.600	90.400	90.200	103.400	1.144
90.600	90.400	89.500	103.200	1.142
90.700	90.400	87.200	103.100	1.141
90.900	90.400	86.600	102.900	1.139
91.000	90.400	90.000	102.800	1.137
90.800	90.400	98.700	102.600	1.136
90.800	90.400	107.800	102.500	1.135
90.600	90.400	113.300	103.300	1.143
90.600	90.400	115.600	103.300	1.143
90.600	90.400	117.200	103.300	1.143
90.600	90.400	120.200	103.300	1.142
90.900	90.400	124.100	103.300	1.142
90.900	90.400	126.800	103.300	1.143
90.900	90.400	128.700	103.300	1.143
91.000	90.400	130.900	103.300	1.143
90.800	90.400	133.200	103.300	1.143
90.600	90.400	135.100	103.300	1.143
90.500	90.400	136.400	103.300	1.143
90.600	90.400	138.000	103.400	1.144
90.600	90.400	138.900	103.400	1.144
90.500	90.400	139.800	103.400	1.145
90.700	90.400	140.500	103.500	1.145
90.500	90.400	140.700	103.500	1.146
90.800	90.400	140.600	103.600	1.146
90.600	90.400	140.400	103.600	1.147
90.900	90.400	139.800	103.700	1.148
90.700	90.300	139.300	103.800	1.149
90.800	90.300	138.400	103.900	1.150
90.700	90.300	136.500	104.000	1.151
90.900	90.300	133.700	104.100	1.152
90.600	90.300	129.400	104.200	1.154
90.700	90.300	123.200	104.300	1.154
90.800	90.300	115.600	104.300	1.155
90.600	90.300	110.200	104.300	1.155
90.400	90.300	112.000	104.400	1.155
90.400	90.300	115.600	104.400	1.156
90.600	90.300	115.300	104.500	1.156
90.500	90.300	113.200	104.500	1.157
90.400	90.300	112.300	104.500	1.157
90.500	90.300	112.700	104.500	1.158
90.500	90.300	111.900	104.600	1.158
90.500	90.300	110.900	104.600	1.158
90.500	90.300	110.300	104.600	1.159
90.500	90.300	109.600	104.700	1.159
90.600	90.300	109.000	104.700	1.159
90.600	90.300	107.900	104.700	1.160
90.600	90.300	107.000	104.800	1.160
90.500	90.300	106.100	104.800	1.160
90.400	90.300	105.300	104.800	1.161
90.300	90.300	104.000	104.900	1.161
90.200	90.300	103.100	104.900	1.161
90.300	90.300	102.300	104.900	1.162
90.400	90.300	101.300	104.900	1.162
90.500	90.300	100.200	105.000	1.162
90.500	90.300	99.500	105.000	1.163
90.600	90.300	98.600	105.000	1.163
90.500	90.300	97.600	105.000	1.163
90.400	90.300	96.900	105.000	1.163
90.200	90.300	96.200	105.100	1.164
90.400	90.300	95.300	105.100	1.164
90.300	90.300	94.200	105.100	1.164
90.300	90.300	93.300	105.100	1.164
90.500	90.300	92.600	105.100	1.164
